ARQUIVO DE MEDIDA
Usuário: 
Amostra: 
Comentário: Espectro de uma lâmpada halógena, colocada como fonte de radiação na entrada do monocromador, para verificar se o detector de silício está respondendo na faixa do visível. Passo: 10 nm, medidas por ponto: 3, range: 100-15000 nm,
Parâmetros: vmode 1 sen 27 acgain 0 tc 10 23.000000 4.000000
Magnitude (mV)	Comprimento de onda(nm)
2.066667	100.000000
4.200000	110.006496
2.500000	119.995843
1.033333	129.983848
0.400000	139.970400
0.200000	149.955388
0.100000	159.938698
0.100000	169.953713
0.100000	179.966815
0.100000	189.977892
0.100000	199.986831
0.100000	209.993518
0.100000	219.997843
0.100000	229.999691
0.100000	239.998951
0.100000	249.995510
0.100000	259.989255
0.100000	269.980075
0.100000	279.967855
0.100000	289.952485
0.100000	299.967229
0.100000	309.978574
0.100000	319.986407
0.500000	329.990614
0.500000	339.991083
0.100000	349.987699
0.100000	359.980351
0.100000	369.968923
0.200000	379.953305
0.200000	389.966640
0.500000	399.975528
0.600000	409.979855
0.900000	419.979505
1.400000	429.974365
1.900000	439.964320
2.400000	449.949258
3.200000	459.962211
4.100000	469.969883
5.000000	479.972159
6.233333	489.968924
7.400000	499.960063
8.700000	509.945462
10.000000	519.958041
11.300000	529.964611
12.500000	539.965056
13.700000	549.959260
14.700000	559.947107
15.700000	569.961414
16.700000	579.969090
17.600000	589.970019
18.500000	599.964084
19.200000	609.951169
19.800000	619.963975
20.400000	629.969520
21.000000	639.967689
21.700000	649.958362
22.400000	659.974143
23.033333	669.982145
23.766667	679.982249
24.200000	689.974337
24.300000	699.958293
24.600000	709.966584
24.666667	719.966452
24.666667	729.957777
24.633333	739.972944
24.700000	749.979275
24.833333	759.976649
25.066667	769.964947
25.400000	779.976434
25.500000	789.978547
25.600000	799.971163
25.600000	809.986456
25.500000	819.991950
25.400000	829.987524
25.366667	839.973057
25.033333	849.980590
25.300000	859.977774
25.300000	869.964487
25.500000	879.972667
25.700000	889.970064
26.100000	899.956554
26.300000	909.963971
26.466667	919.960166
26.700000	929.945014
27.000000	939.950239
27.200000	949.943797
27.466667	959.957334
27.400000	969.958880
27.000000	979.948311
26.100000	989.957154
24.900000	999.953553
28.066667	1009.951125
27.200000	1019.973245
26.433333	1029.992398
25.366667	1040.008556
24.600000	1050.021689
23.500000	1060.031768
22.400000	1070.038764
21.100000	1080.042648
19.700000	1090.043390
18.200000	1100.040962
16.766667	1110.035334
15.200000	1120.026478
13.700000	1130.014365
12.100000	1139.998964
10.766667	1149.980248
9.600000	1159.958187
8.633333	1169.932753
7.866667	1179.903916
7.500000	1189.871646
7.400000	1199.901459
7.600000	1209.927737
8.200000	1219.950448
9.100000	1229.969564
10.000000	1239.985056
11.200000	1249.996894
12.300000	1260.005048
13.333333	1270.009489
14.500000	1280.010187
15.700000	1290.007114
16.766667	1300.000238
17.800000	1309.989532
18.900000	1319.974965
19.900000	1329.956509
20.900000	1339.934133
21.800000	1349.907809
22.700000	1359.877506
23.400000	1369.908318
24.100000	1379.935041
24.700000	1389.957643
25.300000	1399.976095
25.800000	1409.990368
26.200000	1420.000431
26.700000	1430.006255
27.100000	1440.007809
27.400000	1450.005064
27.800000	1459.997990
28.200000	1469.986558
28.533333	1479.970736
28.900000	1489.950496
29.300000	1499.925807
29.700000	1509.896641
30.100000	1519.927668
30.400000	1529.954098
30.800000	1539.975901
31.233333	1549.993046
31.500000	1560.005504
31.900000	1570.013243
32.200000	1580.016234
32.500000	1590.014446
32.566667	1600.007849
32.900000	1609.996414
33.100000	1619.980108
33.200000	1629.958903
33.233333	1639.932769
33.300000	1649.901674
33.500000	1659.929857
33.466667	1669.952954
33.566667	1679.970935
33.600000	1689.983770
33.666667	1699.991427
33.700000	1709.993875
33.733333	1719.991085
33.766667	1729.983026
33.966667	1739.969667
34.166667	1749.950977
34.300000	1759.926926
34.433333	1769.897483
34.700000	1779.926480
34.800000	1789.949953
34.833333	1799.967872
35.200000	1809.980206
35.333333	1819.986923
35.400000	1829.987993
35.600000	1839.983385
35.600000	1849.973067
35.600000	1859.957008
35.600000	1869.935178
35.600000	1879.907546
35.500000	1889.937543
35.500000	1899.961600
35.300000	1909.979686
35.200000	1919.991770
35.033333	1929.997820
34.800000	1939.997805
34.600000	1949.991693
34.400000	1959.979452
34.200000	1969.961053
33.800000	1979.936462
33.400000	1989.905649
33.200000	1999.931619
32.800000	2009.951224
32.400000	2019.964432
31.900000	2029.971211
31.400000	2039.971530
30.900000	2049.965357
30.300000	2059.952660
29.700000	2069.933406
29.200000	2079.907565
28.566667	2089.937772
27.900000	2099.961244
27.200000	2109.977949
26.500000	2119.987853
25.933333	2129.990926
25.200000	2139.987134
24.600000	2149.976445
24.000000	2159.958828
23.500000	2169.934249
22.733333	2179.964958
22.400000	2189.988554
21.900000	2200.005003
21.400000	2210.014274
20.900000	2220.016333
20.400000	2230.011148
19.933333	2239.998685
19.500000	2249.978914
19.100000	2259.951800
18.600000	2269.979187
18.200000	2279.999074
17.900000	2290.011428
17.466667	2300.016216
17.100000	2310.013406
16.766667	2320.002964
16.400000	2329.984857
16.000000	2339.959052
15.666667	2349.987014
15.266667	2360.007115
14.900000	2370.019324
14.600000	2380.023605
14.100000	2390.019925
13.700000	2400.008252
13.333333	2409.988552
12.900000	2419.960790
12.533333	2429.986040
12.100000	2440.003061
11.700000	2450.011821
11.266667	2460.012286
10.900000	2470.004421
10.400000	2479.988194
10.066667	2489.963569
9.700000	2499.991262
9.300000	2510.010386
8.900000	2520.020908
8.500000	2530.022793
8.133333	2540.016007
7.900000	2550.000516
7.600000	2559.976285
7.200000	2570.003659
6.900000	2580.022118
6.700000	2590.031627
6.400000	2600.032152
6.300000	2610.023657
6.100000	2620.006107
5.900000	2629.979470
5.700000	2640.003706
5.600000	2650.018674
5.333333	2660.024338
5.300000	2670.020663
5.100000	2680.007614
5.000000	2689.985156
4.900000	2700.012914
4.766667	2710.031079
4.566667	2720.039615
4.500000	2730.038487
4.300000	2740.027658
4.200000	2750.007094
4.100000	2760.036073
4.000000	2770.055129
3.900000	2780.064224
3.800000	2790.063324
3.700000	2800.052393
3.700000	2810.031394
3.500000	2820.059249
3.500000	2830.076844
3.400000	2840.084142
3.400000	2850.081109
3.400000	2860.067706
3.400000	2870.043897
3.400000	2880.068239
3.366667	2890.081978
3.400000	2900.085079
3.400000	2910.077504
3.400000	2920.059217
3.500000	2930.030181
3.500000	2940.048574
3.500000	2950.056018
3.633333	2960.052475
3.700000	2970.037908
3.700000	2980.012280
3.800000	2990.033446
3.900000	3000.043348
3.900000	3010.041946
4.000000	3020.029203
4.000000	3030.005082
4.200000	3040.027109
4.200000	3050.037549
4.200000	3060.036365
4.266667	3070.023518
4.300000	3079.998970
4.300000	3090.019911
10.100000	3099.893420
9.900000	3109.994961
9.666667	3120.095937
9.800000	3130.196346
9.800000	3140.296185
9.700000	3150.395454
9.633333	3160.494150
9.600000	3170.592271
9.500000	3180.689816
9.400000	3190.786783
9.400000	3200.883170
9.400000	3210.978975
9.300000	3221.074196
9.166667	3231.168832
9.000000	3241.262880
8.900000	3251.356340
8.800000	3261.449208
8.766667	3271.541483
8.633333	3281.633164
8.600000	3291.724248
8.400000	3301.814733
8.266667	3311.904619
8.200000	3321.993902
8.100000	3332.082582
8.100000	3342.170656
8.100000	3352.258122
8.000000	3362.344979
7.733333	3372.431224
7.900000	3382.516857
7.900000	3392.601875
7.900000	3402.686276
8.000000	3412.770058
7.966667	3422.853220
8.000000	3432.935760
8.100000	3443.017676
8.100000	3453.098966
8.200000	3463.179628
8.300000	3473.259661
8.400000	3483.339063
8.566667	3493.417831
8.600000	3503.495964
8.833333	3513.573460
9.100000	3523.650318
9.300000	3533.726534
9.400000	3543.802109
9.600000	3553.877040
9.800000	3563.951324
10.100000	3574.024960
10.200000	3584.097947
10.400000	3594.170283
10.600000	3604.241965
10.800000	3614.312991
11.000000	3624.383361
11.000000	3634.453072
11.300000	3644.522122
11.500000	3654.590510
11.700000	3664.658233
11.800000	3674.725290
12.000000	3684.791680
12.100000	3694.857399
12.100000	3704.922447
12.400000	3714.986821
12.500000	3725.050520
12.700000	3735.113542
12.800000	3745.175884
12.900000	3755.237546
12.900000	3765.298526
12.866667	3775.358821
13.000000	3785.418429
13.100000	3795.477350
13.200000	3805.535580
13.200000	3815.593119
13.300000	3825.649964
13.400000	3835.706114
13.333333	3845.761566
13.400000	3855.816320
13.400000	3865.870372
13.466667	3875.923722
13.400000	3885.976367
13.500000	3896.028305
13.400000	3906.079536
13.400000	3916.130056
13.500000	3926.179865
13.500000	3936.228960
13.500000	3946.277339
13.433333	3956.325001
13.400000	3966.371944
13.433333	3976.418165
13.433333	3986.463664
13.500000	3996.508439
13.433333	4006.552486
13.400000	4016.595806
13.400000	4026.638395
13.400000	4036.680252
13.400000	4046.721376
13.200000	4056.761764
13.300000	4066.801414
13.300000	4076.840325
13.200000	4086.878495
13.200000	4096.915923
13.200000	4106.952605
13.133333	4116.988541
13.066667	4127.023728
13.100000	4137.058165
13.000000	4147.091851
13.000000	4157.124782
13.000000	4167.156958
12.900000	4177.188376
12.900000	4187.219034
12.900000	4197.248932
12.800000	4207.278067
12.800000	4217.306436
12.800000	4227.334040
12.800000	4237.360874
12.800000	4247.386939
12.700000	4257.412231
12.700000	4267.436750
12.700000	4277.460492
12.700000	4287.483457
12.700000	4297.505643
12.600000	4307.527048
12.600000	4317.547669
12.600000	4327.567506
12.600000	4337.586556
12.600000	4347.604817
12.600000	4357.622288
12.600000	4367.638968
12.600000	4377.654853
12.666667	4387.669942
12.633333	4397.684234
12.600000	4407.697726
12.700000	4417.710417
12.700000	4427.722305
12.700000	4437.733388
12.800000	4447.743664
12.800000	4457.753132
12.900000	4467.761790
12.900000	4477.769635
13.000000	4487.776666
13.000000	4497.782882
13.100000	4507.788280
13.200000	4517.792859
13.266667	4527.796616
13.300000	4537.799550
13.433333	4547.801659
13.500000	4557.802942
13.600000	4567.803396
13.700000	4577.803020
13.800000	4587.801811
13.933333	4597.799769
14.100000	4607.796891
14.133333	4617.793175
14.300000	4627.788620
14.400000	4637.783223
14.500000	4647.776984
14.700000	4657.769899
14.900000	4667.761968
15.000000	4677.753189
14.966667	4687.743559
15.300000	4697.733076
15.400000	4707.721740
15.600000	4717.709549
15.800000	4727.696499
16.000000	4737.682590
16.000000	4747.667820
16.100000	4757.652187
16.100000	4767.635689
16.300000	4777.618324
16.500000	4787.600091
16.500000	4797.580988
16.600000	4807.561012
16.700000	4817.540163
16.733333	4827.518437
16.800000	4837.495835
16.900000	4847.472352
17.000000	4857.447989
17.100000	4867.422743
17.200000	4877.396612
17.300000	4887.369594
17.300000	4897.341688
17.300000	4907.312891
17.400000	4917.283203
17.400000	4927.252620
17.466667	4937.221142
17.500000	4947.188767
17.600000	4957.155492
17.600000	4967.121316
17.600000	4977.086237
17.600000	4987.050253
17.600000	4997.013363
17.700000	5006.975564
17.500000	5016.936856
17.600000	5026.897235
17.600000	5036.856700
17.600000	5046.815250
17.500000	5056.772882
17.500000	5066.729596
17.400000	5076.685388
17.300000	5086.640257
17.300000	5096.594202
17.166667	5106.547220
17.100000	5116.499310
17.100000	5126.450469
17.000000	5136.400697
16.966667	5146.349991
16.900000	5156.298350
16.900000	5166.245771
16.900000	5176.192254
16.900000	5186.137795
16.800000	5196.082393
16.800000	5206.026047
16.800000	5215.968755
16.766667	5225.910514
16.766667	5235.851324
16.700000	5245.791182
16.700000	5255.730086
16.700000	5265.668034
16.666667	5275.605026
16.700000	5285.541058
16.766667	5295.476130
16.700000	5305.410239
16.800000	5315.343384
16.800000	5325.275562
16.800000	5335.206772
16.800000	5345.137013
16.800000	5355.066282
16.800000	5364.994577
16.733333	5374.921897
16.700000	5384.848240
16.700000	5394.773605
16.600000	5404.697988
16.600000	5414.621389
16.600000	5424.543806
16.600000	5434.465237
16.600000	5444.385679
16.600000	5454.305133
16.433333	5464.223594
16.700000	5474.141062
16.700000	5484.057536
16.700000	5493.973012
16.800000	5503.887490
16.800000	5513.800967
16.800000	5523.713441
16.800000	5533.624912
16.900000	5543.535377
16.900000	5553.444834
16.900000	5563.353282
16.900000	5573.260718
16.900000	5583.167141
16.900000	5593.072549
16.900000	5602.976940
16.900000	5612.880313
16.800000	5622.782666
16.800000	5632.683997
16.700000	5642.584303
16.600000	5652.483584
16.700000	5662.381837
16.700000	5672.279061
16.700000	5682.175254
16.700000	5692.070414
16.700000	5701.964539
16.700000	5711.857628
16.700000	5721.749679
16.700000	5731.640689
16.666667	5741.530657
16.700000	5751.419582
16.700000	5761.307461
16.700000	5771.194293
16.800000	5781.080076
16.800000	5790.964808
16.800000	5800.848487
16.800000	5810.731112
16.800000	5820.612680
16.800000	5830.493191
16.866667	5840.372641
16.900000	5850.251030
16.900000	5860.128355
17.000000	5870.004615
16.900000	5879.879808
16.900000	5889.753932
17.000000	5899.626986
17.100000	5909.498967
17.200000	5919.369874
17.266667	5929.499422
17.300000	5939.627836
17.400000	5949.755112
17.400000	5959.881248
17.500000	5970.006244
17.600000	5980.130096
17.600000	5990.252804
17.700000	6000.374364
17.800000	6010.494776
17.800000	6020.614036
17.900000	6030.732144
17.900000	6040.849097
17.900000	6050.964894
18.000000	6061.079532
18.066667	6071.193009
18.100000	6081.305324
18.200000	6091.416474
18.300000	6101.526458
18.200000	6111.635274
18.400000	6121.742919
18.500000	6131.849393
18.600000	6141.954692
18.633333	6152.058815
18.700000	6162.161760
18.800000	6172.263526
18.900000	6182.364109
19.000000	6192.463509
18.900000	6202.561723
19.100000	6212.658749
19.200000	6222.754586
19.300000	6232.849231
19.400000	6242.942683
19.500000	6253.034940
19.600000	6263.125999
19.600000	6273.215859
19.800000	6283.304518
19.666667	6293.391973
19.900000	6303.478224
20.000000	6313.563268
20.100000	6323.647103
20.200000	6333.729727
20.300000	6343.811138
20.400000	6353.891334
20.500000	6363.970314
20.600000	6374.048076
20.600000	6384.124617
20.800000	6394.199935
20.900000	6404.274029
21.000000	6414.346897
21.100000	6424.418537
21.200000	6434.488947
21.300000	6444.558124
21.400000	6454.626068
21.500000	6464.692776
21.500000	6474.758245
21.700000	6484.822476
21.700000	6494.885464
21.800000	6504.947209
21.900000	6515.007708
22.000000	6525.066960
22.000000	6535.124962
22.100000	6545.181713
22.100000	6555.237211
22.200000	6565.291454
22.300000	6575.344440
22.400000	6585.396166
22.400000	6595.446632
22.400000	6605.495835
22.500000	6615.543773
22.500000	6625.590444
22.500000	6635.635847
22.433333	6645.679979
22.600000	6655.722838
22.600000	6665.764424
22.700000	6675.804732
22.700000	6685.843763
22.700000	6695.881514
22.700000	6705.917982
22.700000	6715.953166
22.700000	6725.987065
22.700000	6736.019675
22.700000	6746.050996
22.600000	6756.081025
22.600000	6766.109760
22.600000	6776.137200
22.566667	6786.163343
22.500000	6796.188186
22.500000	6806.211727
22.266667	6816.233966
22.366667	6826.254899
22.300000	6836.274526
22.200000	6846.292843
22.200000	6856.309849
22.100000	6866.325543
22.000000	6876.339922
21.900000	6886.352984
21.900000	6896.364728
21.800000	6906.375151
21.700000	6916.384252
21.600000	6926.392028
21.500000	6936.398478
21.400000	6946.403601
21.200000	6956.407393
21.100000	6966.409853
21.000000	6976.410979
20.666667	6986.410769
20.800000	6996.409222
20.600000	7006.406335
20.500000	7016.402106
20.400000	7026.396534
20.200000	7036.389617
20.100000	7046.381352
19.900000	7056.371738
19.800000	7066.360773
19.700000	7076.348455
19.500000	7086.334782
19.300000	7096.319752
19.300000	7106.303363
19.100000	7116.285614
18.900000	7126.266502
18.800000	7136.246025
18.600000	7146.224183
18.366667	7156.200971
18.300000	7166.176390
18.100000	7176.150436
18.000000	7186.123109
17.900000	7196.094405
17.700000	7206.064324
17.533333	7216.032862
17.400000	7226.000020
17.033333	7235.965793
17.100000	7245.930181
16.900000	7255.893181
16.700000	7265.854793
16.533333	7275.815013
16.400000	7285.773839
16.233333	7295.731271
16.200000	7305.687306
15.900000	7315.641942
15.900000	7325.595177
15.800000	7335.547010
15.700000	7345.497438
15.600000	7355.446459
15.500000	7365.394072
15.400000	7375.340275
15.300000	7385.285066
15.033333	7395.228442
15.200000	7405.170403
15.100000	7415.110945
15.100000	7425.050068
15.100000	7434.987769
15.000000	7444.924047
15.100000	7454.858899
15.100000	7464.792323
15.100000	7474.724318
15.133333	7484.654882
15.133333	7494.584013
15.200000	7504.511709
15.300000	7514.437968
15.400000	7524.362788
15.533333	7534.286167
15.700000	7544.208104
15.800000	7554.128596
15.800000	7564.047642
16.000000	7573.965239
16.100000	7583.881386
16.300000	7593.796081
16.500000	7603.709322
16.700000	7613.621107
16.900000	7623.531435
17.000000	7633.440302
17.200000	7643.347708
17.400000	7653.253651
17.700000	7663.158128
17.900000	7673.061137
18.100000	7682.962678
18.366667	7692.862747
18.500000	7702.761344
18.800000	7712.658465
19.000000	7722.554110
19.200000	7732.448276
19.500000	7742.340961
19.700000	7752.232164
20.000000	7762.121883
20.200000	7772.010115
20.400000	7781.896860
20.600000	7791.782114
20.900000	7801.665876
21.100000	7811.548145
21.400000	7821.428917
21.600000	7831.308193
21.866667	7841.185968
22.100000	7851.062242
22.300000	7860.937013
22.333333	7871.063420
22.900000	7881.188241
23.100000	7891.311475
23.300000	7901.433119
23.500000	7911.553172
23.733333	7921.671631
24.000000	7931.788495
24.300000	7941.903761
24.366667	7952.017428
24.700000	7962.129492
24.900000	7972.239953
25.200000	7982.348808
25.400000	7992.456056
25.600000	8002.561693
25.800000	8012.665719
26.100000	8022.768131
26.200000	8032.868926
26.566667	8042.968104
26.800000	8053.065662
27.000000	8063.161598
27.200000	8073.255909
27.400000	8083.348595
27.700000	8093.439652
27.866667	8103.529079
27.966667	8113.616874
28.300000	8123.703035
28.500000	8133.787560
28.700000	8143.870446
29.000000	8153.951691
29.100000	8164.031295
29.300000	8174.109254
29.600000	8184.185566
29.700000	8194.260231
29.900000	8204.333244
30.100000	8214.404605
30.400000	8224.474312
30.500000	8234.542362
30.700000	8244.608753
30.900000	8254.673484
31.100000	8264.736552
31.266667	8274.797955
31.400000	8284.857692
31.700000	8294.915760
31.800000	8304.972157
31.900000	8315.026882
32.133333	8325.079931
32.300000	8335.131304
32.433333	8345.180998
32.600000	8355.229011
32.800000	8365.275341
32.966667	8375.319986
33.100000	8385.362944
33.200000	8395.404213
33.333333	8405.443791
33.500000	8415.481676
33.500000	8425.517866
33.900000	8435.552359
33.933333	8445.585153
34.100000	8455.616246
34.233333	8465.645636
34.366667	8475.673320
34.500000	8485.699298
34.600000	8495.723566
34.633333	8505.746123
34.800000	8515.766966
34.933333	8525.786095
35.000000	8535.803506
35.133333	8545.819198
35.300000	8555.833169
35.400000	8565.845416
35.500000	8575.855938
35.500000	8585.864732
35.700000	8595.871797
35.700000	8605.877131
35.866667	8615.880732
35.900000	8625.882597
36.066667	8635.882724
36.100000	8645.881112
36.200000	8655.877759
36.233333	8665.872662
36.300000	8675.865820
36.400000	8685.857230
36.500000	8695.846891
36.533333	8705.834800
36.600000	8715.820956
36.700000	8725.805356
